#Filter #133, 401_7
#Measured with pinhole and grism 16 on ALFOSC
#April 9, 2011 by Tapio Pursimo
#Transmittance calculated and wavelength calibrated
#by Andreas Sandberg (sandberg@astro.su.se)

3750.140	0.00047
3750.839	0.00010
3751.537	-0.00035
3752.236	0.00098
3752.934	0.00112
3753.633	0.00061
3754.332	-0.00215
3755.031	0.00135
3755.730	0.00155
3756.429	0.00161
3757.128	0.00064
3757.827	0.00073
3758.527	0.00064
3759.226	0.00088
3759.926	0.00127
3760.626	-0.00044
3761.326	0.00073
3762.026	0.00103
3762.726	0.00166
3763.426	0.00039
3764.127	0.00367
3764.827	0.00144
3765.528	0.00062
3766.228	0.00033
3766.929	0.00096
3767.630	0.00057
3768.331	0.00047
3769.032	0.00067
3769.734	0.00089
3770.435	0.00072
3771.136	0.00173
3771.838	0.00091
3772.540	0.00042
3773.242	0.00119
3773.943	0.00197
3774.646	0.00047
3775.348	0.00023
3776.050	0.00107
3776.752	0.00094
3777.455	0.00099
3778.157	0.00066
3778.860	0.00014
3779.563	0.00087
3780.266	0.00032
3780.969	0.00068
3781.672	-0.00046
3782.375	0.00078
3783.079	0.00023
3783.782	0.00118
3784.486	0.00067
3785.189	0.00073
3785.893	0.00066
3786.597	0.00066
3787.301	0.00111
3788.005	0.00142
3788.709	0.00022
3789.414	0.00039
3790.118	0.00039
3790.823	0.00053
3791.528	0.00013
3792.232	0.00131
3792.937	0.00077
3793.642	0.00021
3794.347	0.00009
3795.053	0.00043
3795.758	0.00090
3796.464	0.00094
3797.169	0.00051
3797.875	-0.00189
3798.581	0.00017
3799.287	0.00104
3799.993	0.00000
3800.699	0.00164
3801.405	0.00025
3802.111	0.00028
3802.818	-0.00032
3803.524	0.00028
3804.231	0.00008
3804.938	0.00139
3805.645	0.00048
3806.352	0.00060
3807.059	0.00000
3807.766	0.00004
3808.474	-0.00019
3809.181	0.00012
3809.889	0.00035
3810.596	0.00043
3811.304	0.00066
3812.012	-0.00027
3812.720	0.00027
3813.428	0.00095
3814.136	0.00247
3814.845	0.00053
3815.553	0.00019
3816.262	-0.00253
3816.971	0.00046
3817.679	-0.00008
3818.388	-0.00069
3819.097	0.00023
3819.806	0.00046
3820.516	0.00039
3821.225	0.00050
3821.935	0.00113
3822.644	0.00052
3823.354	0.00051
3824.064	-0.00015
3824.774	0.00011
3825.484	0.00064
3826.194	0.00049
3826.904	0.00033
3827.614	0.00089
3828.325	0.00004
3829.035	0.00036
3829.746	0.00088
3830.457	0.00150
3831.168	0.00102
3831.879	0.00040
3832.590	0.00018
3833.301	0.00004
3834.013	0.00096
3834.724	0.00000
3835.436	0.00102
3836.147	-0.00014
3836.859	0.00205
3837.571	0.00036
3838.283	0.00004
3838.995	0.00105
3839.707	-0.00021
3840.420	0.00032
3841.132	0.00102
3841.845	0.00045
3842.557	0.00109
3843.270	0.00077
3843.983	0.00131
3844.696	0.00000
3845.409	0.00034
3846.123	0.00014
3846.836	0.00030
3847.549	0.00067
3848.263	0.00007
3848.977	0.00023
3849.690	0.00059
3850.404	0.00066
3851.118	0.00055
3851.833	0.00083
3852.547	0.00003
3853.261	0.00069
3853.976	0.00023
3854.690	0.00016
3855.405	0.00039
3856.120	-0.00063
3856.835	0.00057
3857.550	-0.00095
3858.265	-0.00129
3858.980	0.00006
3859.695	-0.00038
3860.411	0.00047
3861.126	0.00053
3861.842	0.00012
3862.558	-0.00024
3863.274	0.00049
3863.990	-0.00054
3864.706	0.00057
3865.422	0.00006
3866.139	0.00045
3866.855	0.00085
3867.572	0.00199
3868.288	0.00072
3869.005	-0.00055
3869.722	-0.00017
3870.439	0.00009
3871.156	0.00035
3871.873	0.00037
3872.591	0.00086
3873.308	0.00078
3874.026	0.00040
3874.743	0.00056
3875.461	0.00037
3876.179	0.00086
3876.897	0.00020
3877.615	0.00003
3878.334	0.00088
3879.052	0.00017
3879.770	0.00011
3880.489	0.00072
3881.208	0.00062
3881.926	0.00219
3882.645	0.00047
3883.364	0.00064
3884.083	0.00019
3884.803	0.00050
3885.522	-0.00008
3886.242	0.00014
3886.961	-0.00008
3887.681	0.00006
3888.401	0.00005
3889.120	0.00097
3889.840	0.00017
3890.561	-0.00003
3891.281	0.00027
3892.001	0.00024
3892.722	0.00011
3893.442	0.00071
3894.163	0.00167
3894.884	-0.00016
3895.605	0.00008
3896.326	0.00058
3897.047	0.00068
3897.768	0.00016
3898.489	0.00021
3899.211	0.00013
3899.932	0.00021
3900.654	0.00097
3901.376	-0.00047
3902.098	0.00084
3902.820	0.00044
3903.542	0.00046
3904.264	0.00114
3904.986	0.00044
3905.709	0.00028
3906.432	-0.00015
3907.154	0.00063
3907.877	-0.00035
3908.600	0.00017
3909.323	-0.00005
3910.046	0.00065
3910.769	0.00050
3911.493	0.00047
3912.216	0.00059
3912.940	0.00047
3913.663	0.00052
3914.387	0.00175
3915.111	0.00039
3915.835	0.00045
3916.559	0.00078
3917.283	0.00017
3918.008	0.00000
3918.732	0.00069
3919.457	0.00036
3920.181	0.00029
3920.906	0.00005
3921.631	0.00019
3922.356	0.00064
3923.081	0.00028
3923.807	0.00046
3924.532	-0.00069
3925.257	0.00077
3925.983	-0.00016
3926.709	0.00034
3927.434	0.00059
3928.160	0.00062
3928.886	0.00041
3929.612	0.00018
3930.339	0.00043
3931.065	0.00053
3931.791	0.00050
3932.518	0.00045
3933.245	0.00063
3933.971	0.00061
3934.698	0.00088
3935.425	0.00069
3936.153	0.00061
3936.880	0.00062
3937.607	0.00074
3938.335	0.00056
3939.062	0.00053
3939.790	0.00042
3940.518	0.00039
3941.245	0.00055
3941.973	0.00050
3942.702	-0.00020
3943.430	0.00046
3944.158	0.00069
3944.887	0.00049
3945.615	0.00047
3946.344	0.00034
3947.073	0.00079
3947.802	0.00051
3948.531	0.00096
3949.260	0.00023
3949.989	0.00057
3950.718	0.00034
3951.448	0.00066
3952.177	0.00013
3952.907	0.00167
3953.637	0.00040
3954.367	0.00017
3955.097	0.00077
3955.827	0.00000
3956.557	0.00029
3957.287	0.00065
3958.018	0.00098
3958.748	0.00125
3959.479	0.00107
3960.210	0.00091
3960.941	-0.00041
3961.672	0.00131
3962.403	0.00098
3963.134	0.00116
3963.865	0.00119
3964.597	0.00128
3965.328	0.00168
3966.060	0.00155
3966.792	0.00180
3967.524	0.00218
3968.256	0.00280
3968.988	0.00327
3969.720	0.00444
3970.453	0.00524
3971.185	0.00637
3971.918	0.00813
3972.650	0.01203
3973.383	0.01460
3974.116	0.02055
3974.849	0.02737
3975.582	0.03748
3976.315	0.04924
3977.049	0.07074
3977.782	0.10254
3978.516	0.14170
3979.249	0.18957
3979.983	0.23082
3980.717	0.29353
3981.451	0.35257
3982.185	0.41007
3982.919	0.46403
3983.654	0.49866
3984.388	0.54733
3985.123	0.57499
3985.857	0.59603
3986.592	0.60836
3987.327	0.60600
3988.062	0.60351
3988.797	0.59589
3989.532	0.58661
3990.268	0.58988
3991.003	0.59648
3991.739	0.60101
3992.474	0.59278
3993.210	0.60647
3993.946	0.61852
3994.682	0.62519
3995.418	0.63501
3996.154	0.63520
3996.891	0.65683
3997.627	0.65587
3998.364	0.66971
3999.100	0.67458
3999.837	0.67360
4000.574	0.67524
4001.311	0.68953
4002.048	0.67532
4002.785	0.69002
4003.523	0.67456
4004.260	0.67860
4004.998	0.68397
4005.735	0.67967
4006.473	0.67908
4007.211	0.67768
4007.949	0.66594
4008.687	0.66536
4009.425	0.66400
4010.164	0.67193
4010.902	0.68147
4011.641	0.68597
4012.379	0.68111
4013.118	0.67569
4013.857	0.69127
4014.596	0.69075
4015.335	0.69012
4016.074	0.69768
4016.814	0.70522
4017.553	0.70761
4018.293	0.70856
4019.032	0.70450
4019.772	0.71770
4020.512	0.71687
4021.252	0.71361
4021.992	0.72554
4022.732	0.72299
4023.473	0.71370
4024.213	0.72960
4024.954	0.72414
4025.694	0.71594
4026.435	0.72437
4027.176	0.71704
4027.917	0.71323
4028.658	0.71844
4029.399	0.70981
4030.141	0.71580
4030.882	0.71110
4031.624	0.70117
4032.365	0.69869
4033.107	0.70113
4033.849	0.69185
4034.591	0.69129
4035.333	0.68112
4036.075	0.67418
4036.818	0.66222
4037.560	0.65186
4038.303	0.62948
4039.045	0.61587
4039.788	0.58840
4040.531	0.55740
4041.274	0.52694
4042.017	0.49306
4042.760	0.45242
4043.504	0.41468
4044.247	0.36752
4044.991	0.32684
4045.734	0.28856
4046.478	0.25047
4047.222	0.21420
4047.966	0.18426
4048.710	0.15712
4049.454	0.12831
4050.199	0.10946
4050.943	0.09315
4051.688	0.07486
4052.432	0.06113
4053.177	0.05128
4053.922	0.04285
4054.667	0.03508
4055.412	0.02998
4056.157	0.02451
4056.903	0.01995
4057.648	0.01688
4058.394	0.01384
4059.139	0.01179
4059.885	0.00977
4060.631	0.00822
4061.377	0.00739
4062.123	0.00608
4062.869	0.00493
4063.616	0.00376
4064.362	0.00337
4065.109	0.00325
4065.855	0.00270
4066.602	0.00246
4067.349	0.00204
4068.096	0.00099
4068.843	0.00107
4069.590	0.00131
4070.338	0.00130
4071.085	0.00092
4071.833	0.00134
4072.580	0.00077
4073.328	0.00082
4074.076	0.00085
4074.824	0.00034
4075.572	-0.00035
4076.320	0.00042
4077.069	0.00086
4077.817	0.00023
4078.566	0.00001
4079.314	0.00014
4080.063	0.00021
4080.812	0.00032
4081.561	0.00049
4082.310	-0.00030
4083.059	0.00004
4083.809	0.00007
4084.558	0.00015
4085.308	-0.00007
4086.057	0.00024
4086.807	0.00008
4087.557	0.00035
4088.307	-0.00056
4089.057	-0.00005
4089.807	0.00019
4090.557	0.00003
4091.308	0.00011
4092.058	0.00004
4092.809	0.00013
4093.560	-0.00004
4094.311	-0.00008
4095.062	0.00020
4095.813	0.00005
4096.564	0.00008
4097.315	0.00000
4098.067	0.00005
4098.818	0.00021
4099.570	0.00015
4100.322	0.00025
4101.074	-0.00031
4101.826	0.00030
4102.578	0.00020
4103.330	0.00013
4104.082	0.00038
4104.835	-0.00003
4105.587	0.00021
4106.340	0.00031
4107.093	0.00012
4107.846	-0.00005
4108.599	0.00018
4109.352	-0.00008
4110.105	0.00018
4110.858	-0.00004
4111.612	0.00012
4112.365	-0.00012
4113.119	0.00004
4113.873	0.00078
4114.627	0.00004
4115.381	-0.00005
4116.135	-0.00003
4116.889	0.00008
4117.643	-0.00003
4118.398	-0.00008
4119.152	-0.00010
4119.907	0.00013
4120.662	-0.00039
4121.416	-0.00001
4122.171	0.00015
4122.927	-0.00003
4123.682	0.00001
4124.437	0.00004
4125.192	0.00000
4125.948	-0.00025
4126.704	-0.00005
4127.459	0.00018
4128.215	0.00007
4128.971	0.00053
4129.727	0.00010
4130.484	0.00032
4131.240	0.00023
4131.996	0.00000
4132.753	0.00012
4133.510	0.00024
4134.266	0.00005
4135.023	0.00025
4135.780	0.00017
4136.537	0.00008
4137.294	0.00001
4138.052	-0.00018
4138.809	0.00013
4139.567	0.00035
4140.324	-0.00002
4141.082	0.00021
4141.840	0.00002
4142.598	0.00002
4143.356	-0.00002
4144.114	0.00234
4144.873	-0.00020
4145.631	-0.00014
4146.390	0.00085
4147.148	-0.00014
4147.907	-0.00007
4148.666	0.00009
4149.425	0.00003
4150.184	0.00009
4150.943	-0.00007
4151.703	-0.00006
4152.462	-0.00009
4153.222	-0.00017
4153.981	0.00009
4154.741	0.00028
4155.501	0.00029
4156.261	0.00039
4157.021	-0.00008
4157.781	0.00001
4158.541	0.00008
4159.302	-0.00012
4160.062	-0.00015
4160.823	0.00003
4161.584	-0.00086
4162.345	0.00022
4163.106	0.00002
4163.867	-0.00004
4164.628	0.00002
4165.389	0.00006
4166.151	0.00019
4166.912	0.00007
4167.674	0.00012
4168.436	-0.00006
4169.198	-0.00010
4169.960	0.00026
4170.722	0.00009
4171.484	-0.00006
4172.246	-0.00003
4173.009	0.00013
4173.771	0.00010
4174.534	0.00004
4175.296	-0.00007
4176.059	0.00015
4176.822	0.00032
4177.585	0.00015
4178.349	-0.00004
4179.112	0.00010
4179.875	0.00002
4180.639	0.00014
4181.403	-0.00020
4182.166	-0.00012
4182.930	0.00016
4183.694	0.00017
4184.458	0.00000
4185.222	-0.00006
4185.987	-0.00001
4186.751	-0.00030
4187.516	0.00021
4188.280	-0.00046
4189.045	-0.00025
4189.810	0.00016
4190.575	-0.00008
4191.340	-0.00003
4192.105	-0.00002
4192.871	0.00000
4193.636	0.00017
4194.402	-0.00040
4195.167	0.00003
4195.933	0.00000
4196.699	0.00007
4197.465	0.00013
4198.231	-0.00014
4198.997	-0.00001
4199.763	0.00015
4200.530	0.00002
4201.296	0.00019
4202.063	0.00010
4202.830	0.00012
4203.597	0.00019
4204.364	0.00024
4205.131	0.00012
4205.898	0.00004
4206.665	0.00022
4207.433	-0.00013
4208.200	0.00000
4208.968	0.00012
4209.736	-0.00038
4210.503	-0.00001
4211.271	0.00003
4212.040	0.00006
4212.808	0.00024
4213.576	-0.00005
4214.344	-0.00011
4215.113	0.00033
4215.882	0.00017
4216.650	0.00009
4217.419	0.00006
4218.188	0.00005
4218.957	-0.00016
4219.727	0.00008
4220.496	-0.00002
4221.265	-0.00005
4222.035	-0.00013
4222.804	-0.00007
4223.574	-0.00008
4224.344	0.00015
4225.114	0.00013
4225.884	0.00007
4226.654	0.00011
4227.425	-0.00010
4228.195	0.00006
4228.966	0.00008
4229.736	0.00033
4230.507	0.00005
4231.278	-0.00019
4232.049	0.00009
4232.820	0.00009
4233.591	0.00011
4234.362	0.00005
4235.134	0.00003
4235.905	-0.00005
4236.677	-0.00002
4237.449	0.00002
4238.221	0.00002
4238.993	-0.00003
4239.765	-0.00007
4240.537	0.00001
4241.309	0.00001
4242.082	0.00014
4242.854	0.00011
4243.627	0.00019
4244.400	0.00014
4245.172	0.00004
4245.945	0.00017
4246.718	0.00010
4247.492	0.00042
4248.265	0.00020
4249.038	0.00004
4249.812	0.00068
4250.586	0.00001
4251.359	0.00018
4252.133	0.00011
4252.907	0.00018
4253.681	0.00003
4254.455	-0.00002
4255.230	0.00009
4256.004	0.00008
4256.779	0.00006
4257.553	0.00006
4258.328	0.00006
4259.103	-0.00020
4259.878	0.00007
4260.653	0.00009
4261.428	-0.00014
4262.203	0.00014
4262.979	-0.00001
4263.754	0.00002
4264.530	0.00000
4265.306	0.00025
4266.082	-0.00003
4266.858	0.00010
4267.634	0.00016
4268.410	0.00016
4269.186	-0.00009
4269.963	0.00009
4270.739	0.00008
4271.516	-0.00002
4272.293	-0.00002
4273.069	-0.00002
4273.846	0.00014
4274.623	-0.00012
4275.401	-0.00012
4276.178	0.00006
4276.955	0.00001
4277.733	-0.00006
4278.511	-0.00009
4279.288	0.00015
4280.066	-0.00007
4280.844	-0.00028
4281.622	-0.00033
4282.400	-0.00013
4283.179	0.00006
4283.957	0.00004
4284.736	0.00021
4285.514	-0.00003
4286.293	0.00016
4287.072	0.00003
4287.851	0.00007
4288.630	-0.00003
4289.409	0.00001
4290.188	-0.00002
4290.968	0.00008
4291.747	-0.00028
4292.527	-0.00030
4293.307	-0.00027
4294.087	-0.00001
4294.867	-0.00028
4295.647	-0.00012
4296.427	-0.00018
4297.207	0.00015
4297.988	0.00014
4298.768	0.00017
4299.549	0.00013
4300.329	-0.00019
4301.110	0.00011
4301.891	0.00009
4302.672	-0.00002
4303.454	-0.00002
4304.235	0.00004
4305.016	-0.00001
4305.798	-0.00014
4306.579	-0.00005
4307.361	-0.00012
4308.143	-0.00012
4308.925	0.00008
4309.707	-0.00007
4310.489	-0.00025
4311.272	-0.00015
4312.054	-0.00038
4312.836	0.00003
4313.619	-0.00011
4314.402	0.00003
4315.185	-0.00049
4315.968	-0.00008
4316.751	0.00013
4317.534	-0.00025
4318.317	-0.00021
4319.101	-0.00028
4319.884	-0.00028
4320.668	0.00069
4321.452	-0.00003
4322.235	-0.00019
4323.019	0.00011
4323.803	0.00012
4324.588	0.00001
4325.372	-0.00019
4326.156	0.00018
4326.941	0.00010
4327.725	-0.00002
4328.510	-0.00007
4329.295	0.00004
4330.080	-0.00033
4330.865	0.00001
4331.650	0.00006
4332.436	-0.00010
4333.221	-0.00009
4334.007	-0.00004
4334.792	0.00015
4335.578	0.00003
4336.364	0.00076
4337.150	-0.00005
4337.936	-0.00001
4338.722	-0.00008
4339.508	-0.00007
4340.295	-0.00011
4341.081	-0.00011
4341.868	-0.00001
4342.655	-0.00004
4343.441	-0.00005
4344.228	-0.00014
4345.015	-0.00001
4345.803	-0.00018
4346.590	0.00004
4347.377	-0.00032
4348.165	-0.00031
4348.952	-0.00018
4349.740	-0.00032
4350.528	0.00009
4351.316	-0.00056
4352.104	-0.00019
4352.892	0.00010
4353.681	0.00008
4354.469	-0.00001
4355.258	0.00010
4356.046	-0.00017
4356.835	-0.00007
4357.624	-0.00032
4358.413	0.00000
4359.202	-0.00002
4359.991	0.00000
4360.780	-0.00006
4361.570	0.00006
4362.359	-0.00007
4363.149	0.00002
4363.939	0.00011
4364.728	0.00007
4365.518	-0.00004
4366.308	0.00009
4367.099	0.00021
4367.889	-0.00003
4368.679	0.00009
4369.470	0.00003
4370.260	0.00017
4371.051	0.00000
4371.842	-0.00014
4372.633	0.00000
4373.424	0.00003
4374.215	0.00003
4375.007	-0.00001
4375.798	-0.00001
4376.589	0.00004
4377.381	0.00008
4378.173	0.00011
4378.965	-0.00039
4379.757	0.00001
4380.549	0.00002
4381.341	0.00045
4382.133	0.00010
4382.926	0.00004
4383.718	-0.00004
4384.511	0.00014
4385.303	-0.00008
4386.096	0.00006
4386.889	0.00004
4387.682	0.00001
4388.475	-0.00003
4389.269	-0.00001
4390.062	-0.00001
4390.856	0.00005
4391.649	0.00013
4392.443	0.00011
4393.237	-0.00001
4394.031	-0.00008
4394.825	0.00013
4395.619	0.00006
4396.413	0.00001
4397.208	0.00009
4398.002	0.00010
4398.797	0.00004
4399.592	0.00004
4400.387	0.00019
4401.181	0.00006
4401.977	-0.00003
4402.772	0.00001
4403.567	0.00010
4404.362	0.00009
4405.158	0.00006
4405.954	-0.00009
4406.749	0.00012
4407.545	0.00006
4408.341	0.00006
4409.137	0.00001
4409.933	0.00019
4410.730	0.00011
4411.526	0.00013
4412.323	0.00007
4413.119	-0.00019
4413.916	0.00008
4414.713	-0.00001
4415.510	0.00002
4416.307	0.00004
4417.104	-0.00003
4417.901	0.00004
4418.699	-0.00007
4419.496	-0.00030
4420.294	-0.00011
4421.091	0.00026
4421.889	0.00004
4422.687	-0.00005
4423.485	0.00004
4424.283	0.00015
4425.082	-0.00009
4425.880	0.00006
4426.679	0.00005
4427.477	0.00029
4428.276	0.00011
4429.075	0.00012
4429.874	0.00000
4430.673	-0.00004
4431.472	-0.00005
4432.271	0.00011
4433.071	0.00012
4433.870	-0.00015
4434.670	0.00005
4435.470	0.00003
4436.269	0.00009
4437.069	0.00013
4437.869	-0.00015
4438.670	-0.00006
4439.470	-0.00001
4440.270	0.00012
4441.071	0.00011
4441.871	0.00009
4442.672	0.00003
4443.473	-0.00068
4444.274	0.00005
4445.075	0.00005
4445.876	0.00000
4446.677	0.00003
4447.479	-0.00003
4448.280	0.00009
4449.082	0.00005
4449.884	-0.00002
4450.686	-0.00001
4451.488	0.00002
4452.290	-0.00004
4453.092	-0.00017
4453.894	-0.00008
4454.696	0.00008
4455.499	0.00009
4456.302	0.00008
4457.104	0.00003
4457.907	-0.00001
4458.710	0.00004
4459.513	0.00015
4460.316	0.00004
4461.120	-0.00001
4461.923	0.00004
4462.726	0.00009
4463.530	0.00002
4464.334	-0.00001
4465.138	0.00014
4465.942	0.00010
4466.746	0.00012
4467.550	-0.00004
4468.354	0.00004
4469.159	-0.00002
4469.963	0.00008
4470.768	0.00012
4471.572	0.00000
4472.377	-0.00011
4473.182	0.00005
4473.987	0.00010
4474.792	0.00002
4475.598	-0.00011
4476.403	-0.00003
4477.209	-0.00006
4478.014	0.00040
4478.820	0.00009
4479.626	0.00004
4480.432	0.00009
4481.238	-0.00004
4482.044	-0.00004
4482.850	0.00006
4483.657	0.00002
4484.463	0.00002
4485.270	-0.00003
4486.076	0.00000
4486.883	-0.00002
4487.690	0.00010
4488.497	-0.00001
4489.304	0.00002
4490.112	-0.00012
4490.919	-0.00006
4491.727	-0.00008
4492.534	-0.00002
4493.342	0.00010
4494.150	-0.00014
4494.958	-0.00002
4495.766	0.00002
4496.574	-0.00012
4497.382	0.00003
4498.191	-0.00001
4498.999	-0.00002
4499.808	-0.00002
4500.616	-0.00009
4501.425	0.00002
4502.234	-0.00002
4503.043	-0.00003
4503.852	-0.00008
4504.662	-0.00007
4505.471	-0.00004
4506.281	0.00010
4507.090	-0.00007
4507.900	0.00004
4508.710	-0.00006
4509.520	0.00005
4510.330	0.00005
4511.140	-0.00008
4511.950	0.00001
4512.761	0.00010
4513.571	-0.00001
4514.382	0.00005
4515.192	0.00011
4516.003	0.00005
4516.814	0.00001
4517.625	0.00001
4518.436	0.00007
4519.248	0.00000
4520.059	-0.00010
4520.871	0.00001
4521.682	-0.00001
4522.494	0.00003
4523.306	-0.00006
4524.118	-0.00002
4524.930	0.00042
4525.742	0.00000
4526.554	-0.00001
4527.367	-0.00044
4528.179	-0.00006
4528.992	-0.00004
4529.804	-0.00007
4530.617	0.00001
4531.430	0.00007
4532.243	0.00001
4533.056	-0.00003
4533.870	0.00001
4534.683	0.00005
4535.497	0.00002
4536.310	0.00006
4537.124	0.00000
4537.938	-0.00001
4538.752	0.00007
4539.566	0.00001
4540.380	-0.00000
4541.194	-0.00003
4542.009	-0.00004
4542.823	0.00005
4543.638	-0.00003
4544.452	0.00006
4545.267	-0.00000
4546.082	-0.00006
4546.897	0.00001
4547.712	-0.00002
4548.528	-0.00008
4549.343	-0.00012
4550.158	-0.00001
4550.974	0.00006
4551.790	-0.00000
4552.606	0.00001
4553.422	0.00003
4554.238	-0.00001
4555.054	0.00004
4555.870	-0.00008
4556.686	0.00000
4557.503	0.00005
4558.320	-0.00003
4559.136	0.00000
4559.953	0.00003
4560.770	0.00000
4561.587	-0.00006
4562.404	0.00002
4563.221	0.00003
4564.039	-0.00005
4564.856	-0.00007
4565.674	0.00011
4566.492	0.00005
4567.309	-0.00004
4568.127	0.00019
4568.945	-0.00002
4569.764	0.00002
4570.582	0.00007
4571.400	0.00003
4572.219	-0.00007
4573.037	-0.00003
4573.856	0.00001
4574.675	0.00000
4575.494	0.00102
4576.313	-0.00006
4577.132	-0.00003
4577.951	0.00035
4578.771	0.00000
4579.590	-0.00003
4580.410	0.00019
4581.230	-0.00000
4582.049	-0.00007
4582.869	-0.00005
4583.689	0.00005
4584.509	0.00002
4585.330	-0.00002
4586.150	-0.00003
4586.971	0.00000
4587.791	0.00003
4588.612	0.00006
4589.433	0.00006
4590.254	0.00005
4591.075	-0.00002
4591.896	0.00006
4592.717	-0.00006
4593.539	0.00005
4594.360	-0.00006
4595.182	-0.00001
4596.003	-0.00007
4596.825	0.00002
4597.647	-0.00008
4598.469	-0.00006
4599.291	0.00010
4600.114	0.00001
4600.936	-0.00005
4601.758	-0.00001
4602.581	-0.00008
4603.404	-0.00003
4604.227	-0.00004
4605.050	0.00000
4605.873	-0.00008
4606.696	-0.00003
4607.519	-0.00002
4608.342	0.00001
4609.166	0.00002
4609.989	0.00003
4610.813	-0.00004
4611.637	-0.00006
4612.461	-0.00004
4613.285	-0.00003
4614.109	-0.00004
4614.933	-0.00007
4615.758	0.00005
4616.582	0.00002
4617.407	-0.00011
4618.232	-0.00003
4619.056	0.00004
4619.881	0.00001
4620.706	0.00001
4621.532	-0.00005
4622.357	0.00003
